Unnamed: 1	#Wave	Unnamed: 3	#Intensity
699.292969	4026.161865		
700.611694	3978.475586		
701.93042	3978.293945		
703.249146	4017.634277		
704.567871	4032.060059		
705.886597	3997.966309		
707.205322	3989.325928		
708.524048	4168.293457		
709.842773	4095.849854		
711.161499	4156.080078		
712.480225	4091.119629		
713.79895	4051.719727		
715.117676	4071.222412		
716.436401	4069.681641		
717.755127	4066.965332		
719.073853	4014.061523		
720.392578	4079.521729		
721.711304	4099.01416		
723.030029	4100.725098		
724.348755	4097.021484		
725.66748	4111.933105		
726.986206	4191.868164		
728.304932	4154.395508		
729.623657	4059.444824		
730.942383	4148.30957		
732.261108	4202.001465		
733.579834	4198.822266		
734.89856	4176.148438		
736.217285	4142.62793		
737.536011	4191.429688		
738.854736	4185.025391		
740.173462	4183.380371		
741.492188	4199.128418		
742.810913	4152.850098		
744.129639	4112.321289		
745.448364	4173.282715		
746.76709	4183.276367		
748.085815	4161.257813		
749.404541	4167.406738		
750.723267	4169.160156		
752.041992	4207.942871		
753.360718	4217.460938		
754.679443	4199.037598		
755.998169	4283.764648		
757.316895	4291.552734		
758.63562	4253.737305		
759.954346	4191.285645		
761.273071	4246.354492		
762.591797	4275.393066		
763.910522	4259.54248		
765.229248	4296.791992		
766.547974	4255.52832		
767.866699	4257.631836		
769.185425	4261.014648		
770.50415	4297.352539		
771.822876	4325.788086		
773.141602	4330.786133		
774.460327	4301.410645		
775.779053	4239.879883		
777.097778	4323.500977		
778.416504	4280.928711		
779.735229	4305.746582		
781.053955	4309.240723		
782.372681	4288.098145		
783.691406	4311.114746		
785.010132	4383.899414		
786.328857	4341.189453		
787.647583	4383.408691		
788.966309	4314.595703		
790.285034	4321.734375		
791.60376	4343.257813		
792.922485	4399.000488		
794.241211	4465.333496		
795.559937	4437.879883		
796.878662	4316.60498		
798.197388	4422.094727		
799.516113	4393.117676		
800.834839	4404.463379		
802.153564	4468.185059		
803.47229	4506.723633		
804.791016	4485.032715		
806.109741	4468.865234		
807.428467	4455.172363		
808.747192	4380.416504		
810.065918	4430.427734		
811.384644	4419.938965		
812.703369	4410.881348		
814.022095	4452.958984		
815.34082	4507.001953		
816.659546	4509.4375		
817.978271	4476.976074		
819.296997	4450.031738		
820.615723	4534.687988		
821.934448	4567.234375		
823.253174	4535.177246		
824.571899	4500.677734		
825.890625	4524.715332		
827.209351	4614.442871		
828.528076	4573.234375		
829.846802	4477.58252		
831.165527	4513.162109		
832.484253	4563.605469		
833.802979	4547.582031		
835.121704	4532.64209		
836.44043	4592.240234		
837.759155	4571.471191		
839.077881	4535.94873		
840.396606	4589.729004		
841.715332	4552.507813		
843.034058	4572.04834		
844.352783	4627.879395		
845.671509	4636.730469		
846.990234	4591.608398		
848.30896	4593.784668		
849.627686	4578.527832		
850.946411	4565.987793		
852.265137	4607.952637		
853.583862	4608.868164		
854.902588	4575.275391		
856.221313	4570.700195		
857.540039	4623.173828		
858.858765	4669.854492		
860.17749	4679.350586		
861.496216	4616.885742		
862.814941	4687.408203		
864.133667	4664.359863		
865.452393	4599.860352		
866.771118	4574.365723		
868.089844	4573.995605		
869.408569	4566.644043		
870.727295	4669.681152		
872.046021	4614.980957		
873.364746	4630.107422		
874.683472	4710.962402		
876.002197	4696.850098		
877.320923	4637.063477		
878.639648	4638.737305		
879.958374	4640.964844		
881.2771	4721.992188		
882.595825	4747.665527		
883.914551	4731.333496		
885.233276	4811.657715		
886.552002	4794.51709		
887.870728	4691.95166		
889.189453	4691.640137		
890.508179	4844.747559		
891.826904	4794.499512		
893.14563	4723.274414		
894.464355	4803.758789		
895.783081	4770.466797		
897.101807	4838.697754		
898.420532	4883.569336		
899.739258	4859.32666		
901.057983	4884.996582		
902.376709	4903.591309		
903.695435	4782.112793		
905.01416	4769.016602		
906.332886	4833.327637		
907.651611	4886.43457		
908.970337	4896.713867		
910.289063	4900.021484		
911.607788	4931.673828		
912.926514	4971.585449		
914.245239	4984.470215		
915.563965	4963.115234		
916.88269	4809.757813		
918.201416	4934.265625		
919.520142	4921.461914		
920.838867	4950.5625		
922.157593	5054.461426		
923.476318	4990.212891		
924.795044	4894.84668		
926.11377	4883.788086		
927.432495	4904.645508		
928.751221	4957.612305		
930.069946	5029.021973		
931.388672	5015.861328		
932.707397	5002.404785		
934.026123	5014.336914		
935.344849	4930.910645		
936.663574	4890.845703		
937.9823	5007.475098		
939.301025	4959.998047		
940.619751	5003.280762		
941.938477	5019.606934		
943.257202	4996.777832		
944.575928	4981.900391		
945.894653	5006.350098		
947.213379	5046.126953		
948.532104	5019.63623		
949.85083	5020.448242		
951.169556	5025.31543		
952.488281	5038.737305		
953.807007	5117.699707		
955.125732	5110.608398		
956.444458	5038.361328		
957.763184	5038.983887		
959.081909	5054.276367		
960.400635	5041.076172		
961.71936	5079.226074		
963.038086	5026.844727		
964.356812	5035.439453		
965.675537	5125.491699		
966.994263	5124.461426		
968.312988	5065.987305		
969.631714	5070.868652		
970.950439	5001.38623		
972.269165	5026.342773		
973.587891	5066.144043		
974.906616	5069.976563		
976.225342	5131.217285		
977.544067	5186.585449		
978.862793	5144.297852		
980.181519	5072.986328		
981.500244	5072.275391		
982.81897	5060.508789		
984.137695	5081.288086		
985.456421	5122.711426		
986.775146	5228.992676		
988.093872	5211.987305		
989.412598	5163.062988		
990.731323	5105.240234		
992.050049	5156.834961		
993.368774	5294.829102		
994.6875	5234.714844		
996.006226	5271.666504		
997.324951	5341.882813		
998.643677	5296.800781		
999.962402	5246.625977		
1001.281128	5211.01709		
1002.599854	5226.40625		
1003.918579	5267.153809		
1005.237305	5276.932129		
1006.55603	5260.15625		
1007.874756	5300.661133		
1009.193481	5417.94873		
1010.512207	5383.208008		
1011.830933	5293.45752		
1013.149658	5235.810059		
1014.468384	5269.714355		
1015.787109	5321.777344		
1017.105835	5349.724121		
1018.424561	5367.237793		
1019.743286	5314.19043		
1021.062012	5391.314941		
1022.380737	5323.946777		
1023.699463	5338.850098		
1025.018188	5301.895996		
1026.336914	5396.640625		
1027.65564	5445.803711		
1028.974365	5388.728516		
1030.293091	5346.746094		
1031.611816	5343.36377		
1032.930542	5375.108398		
1034.249268	5412.480469		
1035.567993	5365.73877		
1036.886719	5309.732422		
1038.205444	5370.337402		
1039.52417	5439.394043		
1040.842896	5439.571289		
1042.161621	5398.360352		
1043.480347	5365.699707		
1044.799072	5345.208496		
1046.117798	5395.123535		
1047.436523	5403.63916		
1048.755249	5357.577148		
1050.073975	5419.190918		
1051.3927	5408.916504		
1052.711426	5404.94873		
1054.030151	5425.409668		
1055.348877	5418.206543		
1056.667603	5405.397461		
1057.986328	5428.946289		
1059.305054	5352.23291		
1060.623779	5538.456543		
1061.942505	5495.744629		
1063.26123	5483.723633		
1064.579956	5438.364258		
1065.898682	5481.666016		
1067.217407	5522.775879		
1068.536133	5475.181152		
1069.854858	5493.677246		
1071.173584	5547.17041		
1072.49231	5433.030762		
1073.811035	5484.617188		
1075.129761	5534.852539		
1076.448486	5537.024902		
1077.767212	5570.895508		
1079.085938	5559.268555		
1080.404663	5567.192383		
1081.723389	5610.823242		
1083.042114	5576.181641		
1084.36084	5626.304199		
1085.679565	5618.459473		
1086.998291	5514.593262		
1088.317017	5559.371094		
1089.635742	5702.38916		
1090.954468	5754.963379		
1092.273193	5672.442383		
1093.591919	5622.000977		
1094.910645	5687.400391		
1096.22937	5737.581543		
1097.548096	5706.80127		
1098.866821	5740.617188		
1100.185547	5664.280273		
1101.504272	5769.062988		
1102.822998	5756.485352		
1104.141724	5742.209961		
1105.460449	5755.470703		
1106.779175	5783.534668		
1108.0979	5789.087891		
1109.416626	5762.921387		
1110.735352	5746.787598		
1112.054077	5697.318359		
1113.372803	5820.871582		
1114.691528	5654.350098		
1116.010254	5659.159668		
1117.328979	5621.185547		
1118.647705	5694.522461		
1119.966431	5783.484375		
1121.285156	5770.85791		
1122.603882	5751.208496		
1123.922607	5823.318848		
1125.241333	5796.255371		
1126.560059	5767.92627		
1127.878784	5703.473633		
1129.19751	5772.276367		
1130.516235	5816.32959		
1131.834961	5883.615723		
1133.153687	5893.774902		
1134.472412	5878.968262		
1135.791138	5873.438477		
1137.109863	5866.147461		
1138.428589	5840.461426		
1139.747314	5721.437012		
1141.06604	5879.712891		
1142.384766	5804.13916		
1143.703491	5783.744629		
1145.022217	5814.395996		
1146.340942	5789.921875		
1147.659668	5834.005859		
1148.978394	5877.620605		
1150.297119	5908.026855		
1151.615845	5926.709961		
1152.93457	5795.603516		
1154.253296	5843.483398		
1155.572021	5794.40625		
1156.890747	5789.081543		
1158.209473	5795.094727		
1159.528198	5855.342285		
1160.846924	5855.44043		
1162.165649	5853.55957		
1163.484375	5934.754883		
1164.803101	5957.34668		
1166.121826	5846.230957		
1167.440552	5858.151367		
1168.759277	5955.829102		
1170.078003	5867.285156		
1171.396729	5880.84082		
1172.715454	6013.079102		
1174.03418	5903.250488		
1175.352905	5939.990723		
1176.671631	5963.693848		
1177.990356	5971.624023		
1179.309082	6014.760742		
1180.627808	6023.012695		
1181.946533	5964.19043		
1183.265259	5945.274902		
1184.583984	6007.826172		
1185.90271	5981.937012		
1187.221436	6021.005859		
1188.540161	5999.165527		
1189.858887	5956.032715		
1191.177612	5984.882813		
1192.496338	6038.875977		
1193.815063	6091.068359		
1195.133789	6102.836426		
1196.452515	6052.384277		
1197.77124	6037.207031		
1199.089966	6042.972168		
1200.408691	6129.144531		
1201.727417	6177.679199		
1203.046143	6115.616699		
1204.364868	6154.877441		
1205.683594	6155.053711		
1207.002319	6086.516113		
1208.321045	6112.129395		
1209.639771	6156.208008		
1210.958496	6112.95166		
1212.277222	6101.569824		
1213.595947	6152.440918		
1214.914673	6286.15625		
1216.233398	6194.893555		
1217.552124	6205.071289		
1218.87085	6191.14502		
1220.189575	6313.408203		
1221.508301	6231.150391		
1222.827026	6185.511719		
1224.145752	6181.638184		
1225.464478	6189.677734		
1226.783203	6258.304688		
1228.101929	6287.251953		
1229.420654	6195.596191		
1230.73938	6308.518555		
1232.058105	6328.265625		
1233.376831	6223.766113		
1234.695557	6243.632813		
1236.014282	6242.006348		
1237.333008	6172.05127		
1238.651733	6219.47168		
1239.970459	6302.694336		
1241.289185	6301.939453		
1242.60791	6260.004883		
1243.926636	6246.608887		
1245.245361	6246.703613		
1246.564087	6276.441895		
1247.882813	6163.965332		
1249.201538	6278.90332		
1250.520264	6281.160156		
1251.838989	6329.961914		
1253.157715	6318.738281		
1254.47644	6207.834473		
1255.795166	6224.003418		
1257.113892	6277.279297		
1258.432617	6283.531738		
1259.751343	6261.095703		
1261.070068	6179.748535		
1262.388794	6229.446289		
1263.70752	6346.912598		
1265.026245	6291.536133		
1266.344971	6221.634277		
1267.663696	6429.567871		
1268.982422	6288.567871		
1270.301147	6337.466797		
1271.619873	6370.963379		
1272.938599	6318.30957		
1274.257324	6337.590332		
1275.57605	6349.76123		
1276.894775	6297.488281		
1278.213501	6379.558105		
1279.532227	6413.021973		
1280.850952	6510.523926		
1282.169678	6365.786133		
1283.488403	6535.349121		
1284.807129	6401.455078		
1286.125854	6457.348145		
1287.44458	6488.808594		
1288.763306	6453.528809		
1290.082031	6436.777344		
1291.400757	6438.400879		
1292.719482	6472.153809		
1294.038208	6490.499512		
1295.356934	6411.116699		
1296.675659	6427.290039		
1297.994385	6519.794922		
1299.31311	6545.478027		
1300.631836	6377.463379		
1301.950562	6539.058594		
1303.269287	6584.11084		
1304.588013	6610.894043		
1305.906738	6625.279297		
1307.225464	6676.842285		
1308.544189	6597.402344		
1309.862915	6579.472656		
1311.181641	6658.029297		
1312.500366	6602.442871		
1313.819092	6602.181152		
1315.137817	6587.572266		
1316.456543	6635.788086		
1317.775269	6786.177734		
1319.093994	6813.454102		
1320.41272	6600.447754		
1321.731445	6624.746582		
1323.050171	6590.032227		
1324.368896	6547.459473		
1325.687622	6653.983398		
1327.006348	6663.947266		
1328.325073	6588.314941		
1329.643799	6616.157227		
1330.962524	6661.279785		
1332.28125	6645.431641		
1333.599976	6648.17627		
1334.918701	6649.089355		
1336.237427	6635.665039		
1337.556152	6815.562012		
1338.874878	6802.192871		
1340.193604	6798.449219		
1341.512329	6736.648926		
1342.831055	6715.655762		
1344.14978	6750.752441		
1345.468506	6732.060059		
1346.787231	6724.73584		
1348.105957	6745.02002		
1349.424683	6734.602051		
1350.743408	6748.149414		
1352.062134	6718.256348		
1353.380859	6693.961426		
1354.699585	6780.830078		
1356.018311	6816.581543		
1357.337036	6700.895996		
1358.655762	6781.012695		
1359.974487	6777.932129		
1361.293213	6815.828613		
1362.611938	6763.929688		
1363.930664	6705.432617		
1365.24939	6744.738281		
1366.568115	6826.532715		
1367.886841	6846.586426		
1369.205566	6826.938477		
1370.524292	6835.51123		
1371.843018	6820.380371		
1373.161743	6837.476563		
1374.480469	6729.847168		
1375.799194	6725.998047		
1377.11792	6872.145508		
1378.436646	6807.550781		
1379.755371	6842.125		
1381.074097	6914.680176		
1382.392822	6925.429688		
1383.711548	6828.151367		
1385.030273	6829.046875		
1386.348999	6902.600586		
1387.667725	6901.214355		
1388.98645	6893.791504		
1390.305176	6953.489746		
1391.623901	6969.348145		
1392.942627	6960.82373		
1394.261353	6907.22998		
1395.580078	6989.475098		
1396.898804	6937.390625		
1398.217529	6945.145996		
1399.536255	6909.36377		
1400.85498	6997.532227		
1402.173706	6955.820801		
1403.492432	7071.379883		
1404.811157	7064.694336		
1406.129883	7029.726563		
1407.448608	7009.027832		
1408.767334	6999.519531		
1410.08606	7029.891602		
1411.404785	7031.199707		
1412.723511	7065.782227		
1414.042236	7022.36377		
1415.360962	6989.46875		
1416.679688	7113.42627		
1417.998413	7079.479004		
1419.317139	7120.292969		
1420.635864	7181.949219		
1421.95459	7133.48291		
1423.273315	7090.466797		
1424.592041	7081.566895		
1425.910767	7089.561035		
1427.229492	7133.723145		
1428.548218	7138.697266		
1429.866943	7148.611328		
1431.185669	7126.630371		
1432.504395	7118.251465		
1433.82312	7224.814941		
1435.141846	7112.728516		
1436.460571	7181.072754		
1437.779297	7267.119141		
1439.098022	7250.952148		
1440.416748	7139.273438		
1441.735474	7248.902832		
1443.054199	7091.890625		
1444.372925	7197.516602		
1445.69165	7184.596191		
1447.010376	7164.420898		
1448.329102	7104.665527		
1449.647827	7168.541504		
1450.966553	7295.347656		
1452.285278	7326.467773		
1453.604004	7225.89209		
1454.922729	7133.081055		
1456.241455	7161.410645		
1457.560181	7207.90332		
1458.878906	7247.695801		
1460.197632	7234.625488		
1461.516357	7303.024902		
1462.835083	7409.545898		
1464.153809	7163.344238		
1465.472534	7315.55127		
1466.79126	7204.645508		
1468.109985	7313.334961		
1469.428711	7255.044922		
1470.747437	7236.055664		
1472.066162	7326.324219		
1473.384888	7305.769043		
1474.703613	7302.047363		
1476.022339	7293.804199		
1477.341064	7292.349121		
1478.65979	7294.043457		
1479.978516	7269.605957		
1481.297241	7373.816406		
1482.615967	7428.816895		
1483.934692	7340.654297		
1485.253418	7205.206543		
1486.572144	7391.939453		
1487.890869	7289.048828		
1489.209595	7368.70752		
1490.52832	7312.92334		
1491.847046	7240.239258		
1493.165771	7267.562012		
1494.484497	7390.914063		
1495.803223	7351.85791		
1497.121948	7406.890625		
1498.440674	7434.946289		
1499.759399	7377.059082		
1501.078125	7378.722168		
1502.396851	7417.62793		
1503.715576	7437.034668		
1505.034302	7418.394043		
1506.353027	7390.87207		
1507.671753	7448.89502		
1508.990479	7359.329102		
1510.309204	7315.983398		
1511.62793	7553.172363		
1512.946655	7420.611816		
1514.265381	7459.284668		
1515.584106	7632.103516		
1516.902832	7514.735352		
1518.221558	7441.957031		
1519.540283	7534.9375		
1520.859009	7418.183105		
1522.177734	7532.555664		
1523.49646	7586.248535		
1524.815186	7619.76123		
1526.133911	7518.33252		
1527.452637	7490.87207		
1528.771362	7520.331055		
1530.090088	7505.878906		
1531.408813	7517.326172		
1532.727539	7519.666504		
1534.046265	7521.859375		
1535.36499	7594.007813		
1536.683716	7571.561523		
1538.002441	7545.108398		
1539.321167	7678.64502		
1540.639893	7708.464844		
1541.958618	7737.438965		
1543.277344	7612.983398		
1544.596069	7564.119141		
1545.914795	7541.773926		
1547.233521	7632.668945		
1548.552246	7657.90918		
1549.870972	7722.421387		
1551.189697	7648.150391		
1552.508423	7567.738281		
1553.827148	7619.410156		
1555.145874	7685.788086		
1556.4646	7690.835938		
1557.783325	7649.73291		
1559.102051	7704.775879		
1560.420776	7729.054199		
1561.739502	7682.074707		
1563.058228	7719.126953		
1564.376953	7728.986816		
1565.695679	7815.686523		
1567.014404	7711.625		
1568.33313	7742.632324		
1569.651855	7663.835938		
1570.970581	7640.183105		
1572.289307	7659.710449		
1573.608032	7719.424805		
1574.926758	7727.707031		
1576.245483	7646.01416		
1577.564209	7600.81543		
1578.882935	7716.525391		
1580.20166	7775.519531		
1581.520386	7660.480469		
1582.839111	7765.841797		
1584.157837	7807.635742		
1585.476563	7731.582031		
1586.795288	7667.461914		
1588.114014	7712.242676		
1589.432739	7769.397949		
1590.751465	7848.445801		
1592.07019	7789.695313		
1593.388916	7720.803711		
1594.707642	7797.664551		
1596.026367	7766.585449		
1597.345093	7809.179199		
1598.663818	7733.056641		
1599.982544	7789.035645		
1601.30127	7854.836914		
1602.619995	7901.881836		
1603.938721	7799.570313		
1605.257446	7865.642578		
1606.576172	7857.555664		
1607.894897	7660.434082		
1609.213623	7816.499023		
1610.532349	7803.329102		
1611.851074	7874.592285		
1613.1698	7789.671875		
1614.488525	7883.70166		
1615.807251	7943.628418		
1617.125977	8009.071289		
1618.444702	8022.573242		
1619.763428	8065.670898		
1621.082153	8037.078125		
1622.400879	8016.002441		
1623.719604	8029.002441		
1625.03833	7973.375		
1626.357056	7940.234863		
1627.675781	7968.553711		
1628.994507	7962.813965		
1630.313232	7996.45166		
1631.631958	8074.877441		
1632.950684	8083.578125		
1634.269409	8082.603516		
1635.588135	8002.175293		
1636.90686	7973.865234		
1638.225586	8042.905762		
1639.544312	8059.637207		
1640.863037	8088.088867		
1642.181763	8086.168945		
1643.500488	8001.460449		
1644.819214	8108.47168		
1646.137939	8131.148438		
1647.456665	7976.746582		
1648.775391	8126.688965		
1650.094116	8148.96582		
1651.412842	8068.271484		
1652.731567	8105.068359		
1654.050293	8111.19043		
1655.369019	8147.203613		
1656.687744	8190.343262		
1658.00647	8172.284668		
1659.325195	8164.125977		
1660.643921	8205.163086		
1661.962646	8277.331055		
1663.281372	8254.694336		
1664.600098	8207.285156		
1665.918823	8187.080078		
1667.237549	8225.604492		
1668.556274	8263.922852		
1669.875	8231.601563		
1671.193726	8225.368164		
1672.512451	8252.574219		
1673.831177	8217.603516		
1675.149902	8174.507324		
1676.468628	8220.511719		
1677.787354	8248.616211		
1679.106079	8238.558594		
1680.424805	8257.740234		
1681.74353	8225.165039		
1683.062256	8286.359375		
1684.380981	8325.171875		
1685.699707	8315.444336		
1687.018433	8293.344727		
1688.337158	8321.986328		
1689.655884	8233.888672		
1690.974609	8219.138672		
1692.293335	8062.456055		
1693.612061	8200.960938		
1694.930786	8208.716797		
1696.249512	8281.011719		
1697.568237	8303.634766		
1698.886963	8319.453125		
1700.205688	8294.498047		
1701.524414	8285.114258		
1702.84314	8296.730469		
1704.161865	8456.749023		
1705.480591	8281.125		
1706.799316	8310.764648		
1708.118042	8412.012695		
1709.436768	8378.379883		
1710.755493	8370.484375		
1712.074219	8317.576172		
1713.392944	8264.204102		
1714.71167	8335.516602		
1716.030396	8321.740234		
1717.349121	8283.526367		
1718.667847	8370.381836		
1719.986572	8378.447266		
1721.305298	8334.042969		
1722.624023	8353.260742		
1723.942749	8333.384766		
1725.261475	8339.699219		
1726.5802	8386.981445		
1727.898926	8378.273438		
1729.217651	8346.632813		
1730.536377	8330.645508		
